Frequency (Hz)	Level (dB)
43.066406	-53.220444
86.132813	-38.290874
129.199219	-35.042446
172.265625	-39.701324
215.332031	-39.675564
258.398438	-38.041740
301.464844	-38.563061
344.531250	-38.212402
387.597656	-40.804035
430.664063	-42.173378
473.730469	-37.710281
516.796875	-38.573349
559.863281	-40.461048
602.929688	-42.413548
645.996094	-43.087906
689.062500	-42.864235
732.128906	-43.837578
775.195313	-44.775162
818.261719	-44.643116
861.328125	-44.465977
904.394531	-46.180706
947.460938	-46.253738
990.527344	-46.566055
1033.593750	-46.746288
1076.660156	-47.566204
1119.726563	-49.594666
1162.792969	-51.010601
1205.859375	-51.590130
1248.925781	-52.918484
1291.992188	-53.327232
1335.058594	-53.047234
1378.125000	-54.124187
1421.191406	-55.008659
1464.257813	-55.948322
1507.324219	-56.182915
1550.390625	-56.902790
1593.457031	-56.024773
1636.523438	-55.881657
1679.589844	-55.888035
1722.656250	-56.386307
1765.722656	-55.599991
1808.789063	-54.330498
1851.855469	-52.775738
1894.921875	-54.816021
1937.988281	-57.030045
1981.054688	-56.930241
2024.121094	-57.883934
2067.187500	-59.574978
2110.253906	-58.572418
2153.320313	-57.800388
2196.386719	-57.618122
2239.453125	-58.967564
2282.519531	-59.161518
2325.585938	-58.737377
2368.652344	-61.020550
2411.718750	-62.570496
2454.785156	-62.994331
2497.851563	-61.946644
2540.917969	-62.888359
2583.984375	-64.025101
2627.050781	-63.919491
2670.117188	-64.097794
2713.183594	-63.007225
2756.250000	-63.559818
2799.316406	-64.591820
2842.382813	-63.245464
2885.449219	-63.876583
2928.515625	-64.863892
2971.582031	-64.575279
3014.648438	-63.096897
3057.714844	-61.784084
3100.781250	-62.128006
3143.847656	-60.907578
3186.914063	-58.270031
3229.980469	-56.975712
3273.046875	-57.058743
3316.113281	-58.247227
3359.179688	-58.469437
3402.246094	-57.196270
3445.312500	-57.812870
3488.378906	-59.385094
3531.445313	-60.074230
3574.511719	-59.277214
3617.578125	-58.282478
3660.644531	-55.192204
3703.710938	-53.447643
3746.777344	-54.945297
3789.843750	-56.467667
3832.910156	-56.641941
3875.976563	-56.759792
3919.042969	-57.103935
3962.109375	-57.039093
4005.175781	-54.450893
4048.242188	-52.615860
4091.308594	-51.700043
4134.375000	-48.382507
4177.441406	-46.877808
4220.507813	-45.992722
4263.574219	-44.963425
4306.640625	-45.909950
4349.707031	-47.091263
4392.773438	-48.782021
4435.839844	-47.928669
4478.906250	-47.992306
4521.972656	-47.741211
4565.039063	-48.340679
4608.105469	-48.382130
4651.171875	-48.741226
4694.238281	-49.971222
4737.304688	-49.110825
4780.371094	-48.081470
4823.437500	-48.745220
4866.503906	-48.884983
4909.570313	-47.680847
4952.636719	-48.000683
4995.703125	-47.329205
5038.769531	-47.369808
5081.835938	-46.048347
5124.902344	-44.989079
5167.968750	-44.604748
5211.035156	-45.131916
5254.101563	-44.977993
5297.167969	-45.842350
5340.234375	-46.402946
5383.300781	-45.188465
5426.367188	-44.527637
5469.433594	-44.154308
5512.500000	-43.921329
5555.566406	-43.515457
5598.632813	-45.576817
5641.699219	-49.382919
5684.765625	-51.942326
5727.832031	-52.912628
5770.898438	-54.584190
5813.964844	-52.815769
5857.031250	-50.927883
5900.097656	-51.986698
5943.164063	-51.859386
5986.230469	-50.138226
6029.296875	-49.972832
6072.363281	-50.599174
6115.429688	-51.240597
6158.496094	-51.141270
6201.562500	-50.190060
6244.628906	-49.789841
6287.695313	-49.846378
6330.761719	-50.287495
6373.828125	-50.523411
6416.894531	-50.018913
6459.960938	-49.078152
6503.027344	-48.897121
6546.093750	-50.373043
6589.160156	-51.337917
6632.226563	-52.325737
6675.292969	-52.076469
6718.359375	-52.305012
6761.425781	-54.604481
6804.492188	-55.254478
6847.558594	-57.355827
6890.625000	-57.532631
6933.691406	-58.358536
6976.757813	-57.161610
7019.824219	-57.810829
7062.890625	-60.054729
7105.957031	-60.077454
7149.023438	-62.632389
7192.089844	-63.329411
7235.156250	-63.603832
7278.222656	-63.951675
7321.289063	-62.135052
7364.355469	-63.095139
7407.421875	-64.361206
7450.488281	-65.564194
7493.554688	-66.938942
7536.621094	-66.619713
7579.687500	-66.494896
7622.753906	-66.845795
7665.820313	-67.567848
7708.886719	-67.003204
7751.953125	-66.735626
7795.019531	-64.595673
7838.085938	-64.836075
7881.152344	-63.759819
7924.218750	-62.287418
7967.285156	-61.561993
8010.351563	-59.960453
8053.417969	-59.028378
8096.484375	-57.646736
8139.550781	-56.358189
8182.617188	-56.257092
8225.683594	-55.970512
8268.750000	-55.876740
8311.816406	-55.662048
8354.882813	-55.345394
8397.949219	-56.903057
8441.015625	-59.131123
8484.082031	-59.938957
8527.148438	-60.717442
8570.214844	-60.068020
8613.281250	-60.327625
8656.347656	-59.885239
8699.414063	-60.305214
8742.480469	-60.820679
8785.546875	-61.733158
8828.613281	-61.551487
8871.679688	-61.690380
8914.746094	-61.394928
8957.812500	-60.340992
9000.878906	-61.953777
9043.945313	-62.488373
9087.011719	-62.693401
9130.078125	-63.824871
9173.144531	-64.207657
9216.210938	-64.339378
9259.277344	-63.008148
9302.343750	-62.078999
9345.410156	-61.390213
9388.476563	-61.365166
9431.542969	-61.079021
9474.609375	-61.133556
9517.675781	-60.963100
9560.742188	-60.143646
9603.808594	-59.761814
9646.875000	-59.140324
9689.941406	-58.845116
9733.007813	-57.655434
9776.074219	-59.124432
9819.140625	-60.471287
9862.207031	-62.156033
9905.273438	-62.772575
9948.339844	-61.944973
9991.406250	-61.913429
10034.472656	-61.344971
10077.539063	-61.874908
10120.605469	-63.381710
10163.671875	-64.937531
10206.738281	-66.025620
10249.804688	-67.676476
10292.871094	-68.369102
10335.937500	-68.386192
10379.003906	-69.723175
10422.070313	-69.769508
10465.136719	-69.190842
10508.203125	-68.834282
10551.269531	-69.460793
10594.335938	-70.389343
10637.402344	-69.796989
10680.468750	-70.206947
10723.535156	-70.416153
10766.601563	-69.542046
10809.667969	-69.725441
10852.734375	-69.475182
10895.800781	-69.676147
10938.867188	-68.475586
10981.933594	-68.648216
11025.000000	-69.324821
11068.066406	-70.532822
11111.132813	-70.641388
11154.199219	-70.006737
11197.265625	-69.612518
11240.332031	-69.774178
11283.398438	-69.475266
11326.464844	-69.373413
11369.531250	-69.810448
11412.597656	-69.300545
11455.664063	-68.901489
11498.730469	-68.719795
11541.796875	-68.009216
11584.863281	-67.788704
11627.929688	-68.699142
11670.996094	-69.259361
11714.062500	-70.072128
11757.128906	-70.320572
11800.195313	-71.543831
11843.261719	-71.064995
11886.328125	-70.928642
11929.394531	-72.392853
11972.460938	-72.751556
12015.527344	-72.007492
12058.593750	-72.004288
12101.660156	-71.752258
12144.726563	-71.353218
12187.792969	-71.525887
12230.859375	-70.713943
12273.925781	-70.513939
12316.992188	-70.286095
12360.058594	-70.381042
12403.125000	-69.706375
12446.191406	-69.880531
12489.257813	-71.557777
12532.324219	-72.248077
12575.390625	-72.048470
12618.457031	-71.750221
12661.523438	-72.038910
12704.589844	-72.242874
12747.656250	-71.527336
12790.722656	-71.495865
12833.789063	-71.412010
12876.855469	-70.653770
12919.921875	-70.355583
12962.988281	-70.966446
13006.054688	-71.320435
13049.121094	-71.812836
13092.187500	-72.043930
13135.253906	-71.103668
13178.320313	-71.474281
13221.386719	-72.093224
13264.453125	-72.469315
13307.519531	-72.445488
13350.585938	-71.988281
13393.652344	-71.210068
13436.718750	-71.252045
13479.785156	-71.048172
13522.851563	-71.901802
13565.917969	-72.302170
13608.984375	-72.185707
13652.050781	-72.156349
13695.117188	-72.771545
13738.183594	-72.796509
13781.250000	-72.877563
13824.316406	-72.242760
13867.382813	-72.186966
13910.449219	-72.681633
13953.515625	-72.807541
13996.582031	-73.205940
14039.648438	-73.356621
14082.714844	-73.293068
14125.781250	-73.618820
14168.847656	-73.960007
14211.914063	-73.714867
14254.980469	-73.592155
14298.046875	-73.541885
14341.113281	-73.234421
14384.179688	-73.219711
14427.246094	-73.402283
14470.312500	-73.272263
14513.378906	-73.443855
14556.445313	-73.307816
14599.511719	-73.302917
14642.578125	-73.854744
14685.644531	-73.930359
14728.710938	-73.878990
14771.777344	-73.811440
14814.843750	-73.782173
14857.910156	-73.869446
14900.976563	-73.611244
14944.042969	-73.628021
14987.109375	-73.821846
15030.175781	-73.571815
15073.242188	-73.887634
15116.308594	-74.016838
15159.375000	-73.973160
15202.441406	-73.992485
15245.507813	-74.178558
15288.574219	-73.995972
15331.640625	-73.755386
15374.707031	-73.923103
15417.773438	-74.130058
15460.839844	-74.153282
15503.906250	-73.582237
15546.972656	-73.709297
15590.039063	-74.061928
15633.105469	-73.686028
15676.171875	-73.625755
15719.238281	-73.379532
15762.304688	-73.393349
15805.371094	-74.050201
15848.437500	-74.058632
15891.503906	-73.669106
15934.570313	-73.450790
15977.636719	-73.597466
16020.703125	-73.729904
16063.769531	-73.559105
16106.835938	-73.913445
16149.902344	-74.039711
16192.968750	-73.901131
16236.035156	-73.814957
16279.101563	-73.711388
16322.167969	-73.764503
16365.234375	-73.685951
16408.300781	-73.669022
16451.367188	-73.705414
16494.433594	-73.697327
16537.500000	-73.571281
16580.566406	-73.639877
16623.632813	-74.191811
16666.699219	-74.113708
16709.765625	-73.849640
16752.832031	-73.879906
16795.898438	-73.600777
16838.964844	-73.521500
16882.031250	-73.835701
16925.097656	-74.016861
16968.164063	-73.630547
17011.230469	-73.602745
17054.296875	-73.699898
17097.363281	-73.290993
17140.429688	-73.108055
17183.496094	-73.166557
17226.562500	-73.458038
17269.628906	-73.363007
17312.695313	-73.066696
17355.761719	-73.423538
17398.828125	-73.983276
17441.894531	-73.935104
17484.960938	-73.438835
17528.027344	-73.495232
17571.093750	-73.795845
17614.160156	-74.045761
17657.226563	-73.809418
17700.292969	-73.516068
17743.359375	-73.381424
17786.425781	-73.348946
17829.492188	-73.176949
17872.558594	-73.394295
17915.625000	-73.341721
17958.691406	-73.824516
18001.757813	-74.097878
18044.824219	-73.805984
18087.890625	-73.402580
18130.957031	-73.152603
18174.023438	-73.621460
18217.089844	-73.959343
18260.156250	-73.258919
18303.222656	-73.500374
18346.289063	-73.307518
18389.355469	-73.516510
18432.421875	-73.720940
18475.488281	-73.167305
18518.554688	-73.135597
18561.621094	-73.464073
18604.687500	-73.118111
18647.753906	-72.807388
18690.820313	-72.927246
18733.886719	-72.903679
18776.953125	-73.099243
18820.019531	-73.185532
18863.085938	-72.964828
18906.152344	-72.943893
18949.218750	-73.206207
18992.285156	-73.133179
19035.351563	-73.139824
19078.417969	-73.182579
19121.484375	-72.923851
19164.550781	-72.772675
19207.617188	-73.119186
19250.683594	-73.069771
19293.750000	-73.098915
19336.816406	-73.155113
19379.882813	-73.253471
19422.949219	-73.097061
19466.015625	-72.486420
19509.082031	-73.171028
19552.148438	-73.572105
19595.214844	-73.008484
19638.281250	-72.977837
19681.347656	-73.094070
19724.414063	-73.011497
19767.480469	-73.514824
19810.546875	-73.427666
19853.613281	-73.286949
19896.679688	-73.313881
19939.746094	-73.650101
19982.812500	-73.518333
20025.878906	-73.419128
20068.945313	-73.420097
20112.011719	-73.469841
20155.078125	-73.813293
20198.144531	-74.046806
20241.210938	-74.523743
20284.277344	-73.914238
20327.343750	-73.841377
20370.410156	-74.164612
20413.476563	-74.342903
20456.542969	-74.652504
20499.609375	-74.559860
20542.675781	-74.159531
20585.742188	-74.639015
20628.808594	-74.935974
20671.875000	-75.154617
20714.941406	-75.290176
20758.007813	-76.254051
20801.074219	-76.582848
20844.140625	-76.378883
20887.207031	-76.710342
20930.273438	-76.825394
20973.339844	-77.031342
21016.406250	-77.384964
21059.472656	-77.728844
21102.539063	-77.939331
21145.605469	-78.217346
21188.671875	-78.963127
21231.738281	-79.388382
21274.804688	-79.670792
21317.871094	-80.130829
21360.937500	-80.849953
21404.003906	-81.451775
21447.070313	-81.944725
21490.136719	-82.623619
21533.203125	-83.474350
21576.269531	-83.563744
21619.335938	-84.074455
21662.402344	-84.775757
21705.468750	-85.220169
21748.535156	-86.132050
21791.601563	-86.702324
21834.667969	-87.010674
21877.734375	-87.472336
21920.800781	-88.621040
21963.867188	-88.766129
22006.933594	-89.186150
